#Bin center (MeV)	AD1	AD2	AD3	AD4	AD5	AD6
0.025	0	0	0	0	0	0
0.075	0	0	0	0	0	0
0.125	0	0	0	0	0	0
0.175	0	0	0	0	0	0
0.225	0	0	0	0	0	0
0.275	0	0	0	0	0	0
0.325	0	0	0	0	0	0
0.375	0	0	0	0	0	0
0.425	0	0	0	0	0	0
0.475	0	0	0	0	0	0
0.525	0	0	0	0	0	0
0.575	0	0	0	0	0	0
0.625	0	0	0	0	0	0
0.675	0	0	0	0	0	0
0.725	171.884	168.394	139.118	47.153	45.722	45.279
0.775	183.216	180.821	154.283	47.422	46.267	45.833
0.825	211.198	209.898	183.254	50.251	49.297	48.831
0.875	251.409	251.297	223.060	54.971	54.191	53.693
0.925	296.847	298.061	267.431	60.524	59.956	59.407
0.975	342.091	344.611	311.323	65.944	65.577	64.972
1.025	387.491	391.211	355.256	71.288	71.072	70.372
1.075	436.017	440.773	401.995	77.193	77.032	76.239
1.125	488.029	493.744	451.789	83.807	83.677	82.784
1.175	541.072	547.712	502.358	90.653	90.565	89.580
1.225	593.019	600.539	551.731	97.314	97.274	96.187
1.275	643.619	651.877	599.648	103.839	103.790	102.628
1.325	693.460	702.311	646.671	110.503	110.377	109.145
1.375	742.722	752.107	693.060	117.386	117.157	115.844
1.425	790.529	800.484	738.086	124.156	123.851	122.453
1.475	835.276	845.938	780.398	130.121	129.820	128.376
1.525	875.942	887.537	819.148	134.729	134.575	133.086
1.575	913.424	925.986	855.111	138.119	138.162	136.669
1.625	949.716	963.181	890.148	141.002	141.203	139.691
1.675	986.906	1001.059	926.021	144.163	144.408	142.890
1.725	1025.799	1040.547	963.431	147.968	148.178	146.654
1.775	1065.806	1081.126	1001.737	152.253	152.412	150.879
1.825	1105.568	1121.549	1039.836	156.579	156.752	155.198
1.875	1144.251	1160.932	1076.904	160.634	160.866	159.281
1.925	1181.416	1198.823	1112.599	164.310	164.627	163.010
1.975	1217.256	1235.305	1147.104	167.757	168.122	166.470
2.025	1252.278	1270.883	1180.826	171.190	171.546	169.858
2.075	1286.630	1305.727	1213.905	174.754	175.072	173.345
2.125	1320.469	1339.990	1246.360	178.489	178.737	176.979
2.175	1353.384	1373.321	1277.884	182.297	182.487	180.694
2.225	1385.157	1405.516	1308.214	186.060	186.218	184.385
2.275	1415.272	1436.044	1336.964	189.636	189.788	187.919
2.325	1443.548	1464.747	1363.964	192.954	193.123	191.216
2.375	1469.821	1491.394	1389.071	195.996	196.187	194.244
2.425	1494.169	1516.092	1412.343	198.808	199.017	197.036
2.475	1516.714	1538.896	1433.890	201.473	201.673	199.651
2.525	1537.374	1559.761	1453.664	204.036	204.204	202.147
2.575	1556.255	1578.775	1471.685	206.523	206.648	204.552
2.625	1572.906	1595.557	1487.590	208.849	208.921	206.799
2.675	1586.860	1609.648	1500.892	210.847	210.889	208.747
2.725	1597.508	1620.483	1511.060	212.318	212.373	210.221
2.775	1604.489	1627.677	1517.776	213.117	213.237	211.083
2.825	1607.756	1631.189	1521.021	213.196	213.409	211.264
2.875	1607.430	1631.067	1521.007	212.606	212.929	210.788
2.925	1604.347	1628.107	1518.412	211.545	211.960	209.817
2.975	1599.084	1622.849	1513.764	210.209	210.662	208.524
3.025	1592.021	1615.693	1507.440	208.740	209.183	207.059
3.075	1583.642	1607.135	1499.788	207.241	207.645	205.533
3.125	1573.943	1597.224	1490.860	205.718	206.065	203.975
3.175	1563.001	1586.056	1480.703	204.149	204.442	202.375
3.225	1550.775	1573.607	1469.272	202.497	202.751	200.705
3.275	1537.092	1559.688	1456.438	200.707	200.934	198.908
3.325	1521.828	1544.178	1442.079	198.745	198.957	196.951
3.375	1504.829	1526.917	1426.059	196.577	196.779	194.794
3.425	1485.908	1507.709	1408.234	194.174	194.371	192.407
3.475	1465.182	1486.669	1388.660	191.546	191.737	189.797
3.525	1442.753	1463.898	1367.423	188.701	188.887	186.974
3.575	1418.653	1439.432	1344.629	185.646	185.828	183.943
3.625	1393.261	1413.656	1320.597	182.429	182.605	180.752
3.675	1366.913	1386.914	1295.650	179.091	179.262	177.441
3.725	1340.019	1359.612	1270.151	175.683	175.849	174.061
3.775	1312.813	1331.999	1244.358	172.233	172.395	170.640
3.825	1285.568	1304.345	1218.534	168.780	168.938	167.217
3.875	1258.592	1276.964	1192.934	165.361	165.514	163.828
3.925	1231.941	1249.914	1167.657	161.982	162.132	160.479
3.975	1205.741	1223.323	1142.813	158.661	158.807	157.187
4.025	1180.132	1197.331	1118.495	155.412	155.556	153.968
4.075	1154.882	1171.704	1094.579	152.212	152.352	150.797
4.125	1130.117	1146.571	1071.101	149.069	149.206	147.682
4.175	1105.670	1121.760	1047.927	145.964	146.099	144.606
4.225	1081.452	1097.182	1024.950	142.884	143.016	141.554
4.275	1057.293	1072.663	1002.017	139.807	139.937	138.506
4.325	1032.994	1048.004	978.963	136.708	136.834	135.435
4.375	1008.361	1023.007	955.637	133.561	133.686	132.318
4.425	983.559	997.837	932.104	130.384	130.505	129.170
4.475	958.366	972.274	908.249	127.152	127.272	125.969
4.525	933.014	946.546	884.226	123.894	124.011	122.742
4.575	907.581	920.740	860.137	120.621	120.735	119.499
4.625	882.372	895.159	836.215	117.369	117.480	116.278
4.675	857.399	869.818	812.545	114.145	114.253	113.084
4.725	832.839	844.897	789.282	110.971	111.077	109.940
4.775	808.877	820.583	766.561	107.870	107.973	106.868
4.825	785.509	796.869	744.382	104.841	104.941	103.868
4.875	762.511	773.535	722.606	101.857	101.955	100.912
4.925	739.987	750.680	701.236	98.928	99.023	98.011
4.975	717.739	728.106	680.114	96.030	96.123	95.140
5.025	695.454	705.496	659.025	93.123	93.213	92.260
5.075	673.364	683.082	638.053	90.235	90.324	89.400
5.125	651.398	660.792	617.148	87.354	87.440	86.546
5.175	629.302	638.375	596.191	84.454	84.537	83.673
5.225	607.352	616.103	575.359	81.568	81.648	80.814
5.275	585.628	594.062	554.740	78.708	78.786	77.980
5.325	564.331	572.453	534.493	75.899	75.974	75.198
5.375	543.442	551.259	514.662	73.141	73.214	72.466
5.425	523.176	530.696	495.405	70.464	70.534	69.814
5.475	503.470	510.704	476.726	67.861	67.929	67.235
5.525	484.523	491.480	458.746	65.355	65.420	64.752
5.575	466.296	472.987	441.454	62.941	63.004	62.361
5.625	448.823	455.259	424.860	60.625	60.685	60.066
5.675	432.027	438.218	408.908	58.400	58.459	57.863
5.725	415.753	421.707	393.485	56.240	56.296	55.723
5.775	400.068	405.793	378.597	54.159	54.214	53.662
5.825	384.770	390.273	364.102	52.129	52.181	51.650
5.875	369.856	375.143	349.962	50.143	50.193	49.682
5.925	355.207	360.282	336.084	48.192	48.240	47.750
5.975	340.837	345.702	322.448	46.274	46.320	45.850
6.025	326.664	331.323	308.992	44.383	44.428	43.977
6.075	312.567	317.022	295.634	42.498	42.540	42.109
6.125	298.694	302.946	282.447	40.640	40.680	40.268
6.175	284.768	288.820	269.285	38.777	38.816	38.422
6.225	271.168	275.021	256.346	36.947	36.984	36.610
6.275	257.649	261.306	243.518	35.129	35.164	34.809
6.325	244.276	247.740	230.846	33.326	33.359	33.022
6.375	231.202	234.476	218.432	31.565	31.596	31.277
6.425	218.413	221.502	206.286	29.834	29.864	29.563
6.475	205.840	208.749	194.394	28.132	28.160	27.876
6.525	193.774	196.508	182.931	26.498	26.525	26.258
6.575	182.164	184.729	171.885	24.921	24.946	24.695
6.625	170.899	173.302	161.215	23.392	23.415	23.180
6.675	160.113	162.363	150.998	21.920	21.942	21.722
6.725	149.915	152.017	141.300	20.526	20.547	20.341
6.775	140.173	142.135	132.051	19.194	19.213	19.020
6.825	130.888	132.717	123.251	17.923	17.941	17.762
6.875	122.087	123.791	114.908	16.720	16.737	16.570
6.925	113.719	115.302	106.986	15.576	15.592	15.436
6.975	105.800	107.271	99.484	14.492	14.507	14.362
7.025	98.398	99.761	92.424	13.474	13.488	13.353
7.075	91.290	92.551	85.682	12.500	12.513	12.388
7.125	84.509	85.673	79.265	11.571	11.582	11.467
7.175	78.112	79.184	73.195	10.695	10.706	10.600
7.225	71.992	72.977	67.406	9.854	9.864	9.766
7.275	66.286	67.189	61.968	9.069	9.078	8.988
7.325	60.846	61.670	56.799	8.320	8.329	8.246
7.375	55.583	56.334	51.852	7.599	7.606	7.531
7.425	50.741	51.422	47.252	6.931	6.938	6.870
7.475	46.139	46.755	42.905	6.297	6.303	6.242
7.525	41.854	42.409	38.853	5.708	5.714	5.658
7.575	37.890	38.389	35.096	5.159	5.164	5.114
7.625	34.262	34.709	31.641	4.657	4.662	4.617
7.675	30.821	31.220	28.409	4.184	4.188	4.148
7.725	27.654	28.009	25.441	3.747	3.750	3.714
7.775	24.873	25.189	22.790	3.358	3.361	3.329
7.825	22.310	22.589	20.364	3.004	3.007	2.978
7.875	19.962	20.209	18.156	2.681	2.684	2.658
7.925	17.811	18.028	16.147	2.383	2.385	2.363
7.975	15.996	16.187	14.404	2.130	2.132	2.112
8.025	14.281	14.448	12.797	1.893	1.895	1.878
8.075	12.770	12.916	11.374	1.684	1.685	1.670
8.125	11.414	11.542	10.101	1.496	1.498	1.484
8.175	10.199	10.310	8.966	1.328	1.329	1.317
8.225	9.126	9.223	7.964	1.180	1.181	1.170
8.275	8.203	8.286	7.092	1.052	1.053	1.044
8.325	7.378	7.450	6.318	0.938	0.938	0.931
8.375	6.714	6.776	5.670	0.844	0.845	0.838
8.425	6.089	6.142	5.081	0.757	0.758	0.752
8.475	5.475	5.521	4.530	0.674	0.674	0.669
8.525	4.975	5.014	4.069	0.605	0.606	0.601
8.575	4.505	4.539	3.650	0.542	0.542	0.538
8.625	4.192	4.220	3.335	0.497	0.497	0.494
8.675	3.842	3.866	3.020	0.449	0.450	0.446
8.725	3.531	3.551	2.744	0.407	0.408	0.405
8.775	3.267	3.284	2.507	0.372	0.372	0.370
8.825	3.031	3.045	2.298	0.340	0.340	0.338
8.875	2.858	2.870	2.133	0.316	0.316	0.314
8.925	2.646	2.656	1.958	0.288	0.288	0.286
8.975	2.511	2.519	1.830	0.269	0.269	0.268
9.025	2.330	2.337	1.687	0.246	0.246	0.244
9.075	2.218	2.223	1.585	0.230	0.230	0.229
9.125	2.151	2.155	1.512	0.220	0.220	0.219
9.175	2.037	2.040	1.419	0.206	0.205	0.205
9.225	1.910	1.912	1.324	0.190	0.189	0.189
9.275	1.878	1.879	1.281	0.184	0.184	0.183
9.325	1.808	1.809	1.222	0.175	0.175	0.174
9.375	1.719	1.718	1.155	0.164	0.164	0.163
9.425	1.661	1.660	1.107	0.156	0.156	0.156
9.475	1.592	1.591	1.056	0.147	0.147	0.147
9.525	1.551	1.549	1.020	0.142	0.142	0.141
9.575	1.488	1.486	0.975	0.134	0.134	0.134
9.625	1.431	1.429	0.934	0.127	0.127	0.127
9.675	1.364	1.362	0.889	0.119	0.119	0.119
9.725	1.313	1.311	0.854	0.113	0.113	0.113
9.775	1.299	1.297	0.839	0.111	0.111	0.110
9.825	1.221	1.218	0.791	0.102	0.102	0.101
9.875	1.217	1.214	0.783	0.101	0.101	0.101
9.925	1.205	1.202	0.772	0.099	0.099	0.099
9.975	1.144	1.141	0.735	0.092	0.092	0.092
10.025	1.130	1.127	0.723	0.090	0.090	0.090
10.075	1.101	1.098	0.705	0.087	0.087	0.087
10.125	1.067	1.064	0.684	0.083	0.083	0.083
10.175	1.043	1.040	0.669	0.080	0.080	0.080
10.225	0.996	0.993	0.642	0.075	0.075	0.074
10.275	0.975	0.971	0.628	0.072	0.072	0.072
10.325	0.951	0.948	0.614	0.069	0.069	0.069
10.375	0.932	0.929	0.603	0.067	0.067	0.067
10.425	0.918	0.915	0.594	0.066	0.065	0.065
10.475	0.895	0.892	0.581	0.063	0.063	0.063
10.525	0.877	0.873	0.570	0.061	0.061	0.061
10.575	0.853	0.850	0.557	0.058	0.058	0.058
10.625	0.830	0.827	0.545	0.056	0.056	0.056
10.675	0.825	0.822	0.541	0.055	0.055	0.055
10.725	0.807	0.805	0.532	0.053	0.053	0.053
10.775	0.791	0.788	0.523	0.051	0.051	0.051
10.825	0.772	0.769	0.513	0.049	0.049	0.049
10.875	0.749	0.746	0.500	0.046	0.046	0.046
10.925	0.758	0.755	0.504	0.047	0.047	0.047
10.975	0.740	0.738	0.495	0.046	0.045	0.045
11.025	0.729	0.727	0.489	0.044	0.044	0.044
11.075	0.704	0.701	0.476	0.041	0.041	0.041
11.125	0.703	0.700	0.475	0.041	0.041	0.041
11.175	0.698	0.695	0.472	0.041	0.041	0.041
11.225	0.681	0.678	0.464	0.039	0.039	0.039
11.275	0.674	0.672	0.460	0.038	0.038	0.038
11.325	0.671	0.668	0.458	0.038	0.038	0.038
11.375	0.665	0.663	0.455	0.037	0.037	0.037
11.425	0.653	0.651	0.449	0.036	0.036	0.036
11.475	0.645	0.642	0.444	0.035	0.035	0.035
11.525	0.649	0.646	0.446	0.035	0.035	0.035
11.575	0.650	0.647	0.447	0.035	0.035	0.035
11.625	0.637	0.634	0.440	0.034	0.034	0.034
11.675	0.633	0.630	0.438	0.034	0.034	0.034
11.725	0.634	0.632	0.439	0.034	0.034	0.034
11.775	0.627	0.624	0.435	0.033	0.033	0.033
11.825	0.628	0.626	0.436	0.033	0.033	0.033
11.875	0.623	0.621	0.433	0.033	0.033	0.033
11.925	0.625	0.623	0.434	0.033	0.033	0.033
11.975	0.626	0.623	0.435	0.033	0.033	0.033
