#Bin center (MeV)	AD1	AD2	AD3	AD4	AD5	AD6
0.025	0	0	0	0	0	0
0.075	0	0	0	0	0	0
0.125	0	0	0	0	0	0
0.175	0	0	0	0	0	0
0.225	0	0	0	0	0	0
0.275	0	0	0	0	0	0
0.325	0	0	0	0	0	0
0.375	0	0	0	0	0	0
0.425	0	0	0	0	0	0
0.475	0	0	0	0	0	0
0.525	0	0	0	0	0	0
0.575	0	0	0	0	0	0
0.625	0	0	0	0	0	0
0.675	0	0	0	0	0	0
0.725	172.981	169.489	140.361	47.518	46.087	45.640
0.775	184.828	182.431	156.130	47.883	46.727	46.288
0.825	213.695	212.392	186.146	50.839	49.885	49.412
0.875	255.198	255.081	227.491	55.678	54.897	54.389
0.925	302.229	303.438	273.774	61.303	60.732	60.173
0.975	349.193	351.705	319.724	66.758	66.386	65.769
1.025	396.291	400.003	365.669	72.155	71.932	71.218
1.075	446.422	451.167	414.273	78.186	78.016	77.205
1.125	499.914	505.615	465.751	85.012	84.871	83.955
1.175	554.298	560.922	517.816	92.139	92.040	91.025
1.225	607.450	614.951	568.508	99.131	99.079	97.956
1.275	659.128	667.364	617.586	106.026	105.965	104.759
1.325	709.931	718.757	665.628	113.091	112.952	111.669
1.375	760.052	769.409	712.912	120.400	120.158	118.788
1.425	808.625	818.550	758.724	127.617	127.300	125.838
1.475	854.061	864.691	801.732	134.048	133.736	132.220
1.525	895.354	906.916	841.107	139.137	138.973	137.407
1.575	933.419	945.945	877.643	143.024	143.056	141.480
1.625	970.258	983.685	913.214	146.416	146.607	145.006
1.675	1007.965	1022.079	949.589	150.096	150.333	148.720
1.725	1047.346	1062.054	987.468	154.428	154.631	153.006
1.775	1087.808	1103.086	1026.210	159.243	159.397	157.757
1.825	1127.988	1143.925	1064.703	164.100	164.268	162.602
1.875	1167.045	1183.682	1102.119	168.679	168.908	167.207
1.925	1204.540	1221.900	1138.113	172.871	173.187	171.448
1.975	1240.663	1258.665	1172.870	176.820	177.187	175.408
2.025	1275.922	1294.479	1206.793	180.742	181.101	179.283
2.075	1310.468	1329.515	1240.027	184.777	185.099	183.239
2.125	1344.455	1363.925	1272.592	188.963	189.218	187.323
2.175	1377.476	1397.361	1304.179	193.201	193.399	191.467
2.225	1409.312	1429.620	1334.529	197.370	197.537	195.563
2.275	1439.450	1460.170	1363.256	201.327	201.490	199.478
2.325	1467.709	1488.856	1390.192	204.998	205.181	203.128
2.375	1493.925	1515.445	1415.193	208.366	208.570	206.481
2.425	1518.176	1540.046	1438.319	211.472	211.697	209.569
2.475	1540.584	1562.714	1459.678	214.400	214.617	212.447
2.525	1561.069	1583.403	1479.226	217.193	217.379	215.174
2.575	1579.736	1602.203	1496.981	219.877	220.021	217.778
2.625	1596.137	1618.735	1512.584	222.364	222.457	220.188
2.675	1609.805	1632.541	1525.547	224.489	224.553	222.265
2.725	1620.131	1643.055	1535.339	226.052	226.129	223.832
2.775	1626.758	1649.895	1541.649	226.907	227.050	224.753
2.825	1629.643	1653.025	1544.457	227.008	227.245	224.959
2.875	1628.907	1652.495	1543.980	226.409	226.757	224.476
2.925	1625.393	1649.104	1540.900	225.308	225.749	223.468
2.975	1619.680	1643.397	1535.749	223.905	224.384	222.110
3.025	1612.152	1635.777	1528.908	222.343	222.812	220.556
3.075	1603.296	1626.742	1520.728	220.727	221.157	218.916
3.125	1593.110	1616.347	1511.263	219.066	219.440	217.223
3.175	1581.676	1604.687	1500.565	217.341	217.660	215.470
3.225	1568.953	1591.742	1488.590	215.513	215.794	213.627
3.275	1554.769	1577.323	1475.208	213.531	213.785	211.642
3.325	1538.999	1561.309	1460.298	211.360	211.599	209.479
3.375	1521.490	1543.538	1443.724	208.965	209.195	207.098
3.425	1502.053	1523.816	1425.339	206.320	206.543	204.471
3.475	1480.807	1502.257	1405.203	203.432	203.650	201.606
3.525	1457.854	1478.962	1383.401	200.314	200.526	198.512
3.575	1433.229	1453.974	1360.042	196.973	197.180	195.197
3.625	1407.315	1427.677	1335.449	193.460	193.662	191.714
3.675	1380.451	1400.419	1309.947	189.821	190.017	188.104
3.725	1353.049	1372.611	1283.904	186.107	186.298	184.422
3.775	1325.348	1344.504	1257.581	182.353	182.539	180.700
3.825	1297.622	1316.370	1231.243	178.598	178.779	176.977
3.875	1270.182	1288.526	1205.147	174.881	175.057	173.293
3.925	1243.083	1261.029	1179.393	171.211	171.383	169.655
3.975	1216.454	1234.010	1154.091	167.604	167.773	166.081
4.025	1190.433	1207.606	1129.334	164.079	164.243	162.586
4.075	1164.788	1181.586	1104.998	160.608	160.769	159.147
4.125	1139.643	1156.074	1081.116	157.202	157.359	155.771
4.175	1114.831	1130.899	1057.554	153.839	153.994	152.439
4.225	1090.260	1105.969	1034.203	150.507	150.659	149.137
4.275	1065.760	1081.109	1010.908	147.183	147.330	145.843
4.325	1041.129	1056.119	987.502	143.838	143.983	142.529
4.375	1016.172	1030.799	963.833	140.449	140.591	139.171
4.425	991.053	1005.314	939.965	137.032	137.170	135.785
4.475	965.551	979.441	915.783	133.562	133.698	132.347
4.525	939.896	953.412	891.440	130.069	130.201	128.886
4.575	914.170	927.312	867.041	126.563	126.692	125.412
4.625	888.676	901.447	842.818	123.084	123.209	121.965
4.675	863.427	875.831	818.858	119.638	119.760	118.551
4.725	838.602	850.647	795.316	116.249	116.368	115.193
4.775	814.387	826.079	772.327	112.940	113.056	111.915
4.825	790.776	802.124	749.893	109.710	109.823	108.715
4.875	767.546	778.558	727.872	106.533	106.643	105.567
4.925	744.798	755.480	706.268	103.416	103.524	102.479
4.975	722.336	732.691	684.920	100.335	100.440	99.426
5.025	699.842	709.874	663.611	97.251	97.352	96.370
5.075	677.550	687.257	642.427	94.189	94.288	93.336
5.125	655.387	664.772	621.316	91.137	91.233	90.312
5.175	633.101	642.164	600.159	88.069	88.162	87.272
5.225	610.965	619.707	579.132	85.019	85.109	84.251
5.275	589.062	597.488	558.325	82.000	82.086	81.258
5.325	567.592	575.706	537.897	79.036	79.120	78.322
5.375	546.538	554.347	517.893	76.129	76.210	75.442
5.425	526.113	533.626	498.470	73.309	73.387	72.647
5.475	506.257	513.483	479.633	70.570	70.644	69.933
5.525	487.167	494.118	461.503	67.932	68.005	67.319
5.575	468.804	475.490	444.070	65.395	65.464	64.805
5.625	451.203	457.633	427.342	62.960	63.027	62.393
5.675	434.286	440.472	411.263	60.624	60.688	60.077
5.725	417.897	423.847	395.720	58.357	58.419	57.831
5.775	402.103	407.824	380.718	56.174	56.234	55.668
5.825	386.701	392.200	366.114	54.046	54.103	53.560
5.875	371.688	376.970	351.870	51.966	52.021	51.498
5.925	356.943	362.014	337.892	49.925	49.978	49.476
5.975	342.481	347.342	324.160	47.919	47.970	47.488
6.025	328.219	332.874	310.611	45.943	45.992	45.531
6.075	314.036	318.487	297.164	43.975	44.021	43.580
6.125	300.080	304.329	283.890	42.036	42.081	41.659
6.175	286.073	290.122	270.643	40.095	40.137	39.736
6.225	272.395	276.245	257.623	38.189	38.230	37.847
6.275	258.800	262.455	244.716	36.297	36.335	35.972
6.325	245.354	248.815	231.967	34.422	34.458	34.114
6.375	232.209	235.481	219.480	32.591	32.626	32.300
6.425	219.353	222.439	207.263	30.794	30.827	30.519
6.475	206.715	209.622	195.304	29.027	29.058	28.768
6.525	194.588	197.320	183.777	27.332	27.361	27.089
6.575	182.919	185.482	172.670	25.696	25.723	25.468
6.625	171.599	174.000	161.942	24.112	24.137	23.897
6.675	160.761	163.008	151.671	22.587	22.611	22.387
6.725	150.514	152.615	141.922	21.144	21.167	20.957
6.775	140.726	142.686	132.626	19.765	19.786	19.590
6.825	131.398	133.226	123.781	18.451	18.471	18.288
6.875	122.557	124.259	115.396	17.208	17.226	17.055
6.925	114.151	115.733	107.435	16.025	16.042	15.884
6.975	106.197	107.667	99.896	14.906	14.921	14.774
7.025	98.762	100.124	92.802	13.854	13.869	13.732
7.075	91.624	92.884	86.029	12.849	12.863	12.736
7.125	84.814	85.978	79.582	11.890	11.903	11.785
7.175	78.391	79.462	73.484	10.987	10.999	10.891
7.225	72.245	73.230	67.670	10.120	10.131	10.031
7.275	66.516	67.418	62.207	9.311	9.321	9.230
7.325	61.054	61.878	57.015	8.540	8.549	8.465
7.375	55.771	56.521	52.047	7.797	7.805	7.729
7.425	50.911	51.591	47.427	7.110	7.117	7.048
7.475	46.291	46.907	43.063	6.458	6.464	6.402
7.525	41.990	42.545	38.994	5.852	5.858	5.801
7.575	38.011	38.510	35.221	5.287	5.293	5.242
7.625	34.370	34.816	31.753	4.771	4.776	4.730
7.675	30.916	31.315	28.508	4.285	4.290	4.249
7.725	27.738	28.093	25.529	3.836	3.840	3.803
7.775	24.947	25.263	22.867	3.437	3.441	3.408
7.825	22.375	22.654	20.432	3.074	3.077	3.048
7.875	20.019	20.266	18.215	2.742	2.745	2.719
7.925	17.861	18.078	16.199	2.437	2.439	2.416
7.975	16.040	16.231	14.449	2.177	2.179	2.159
8.025	14.319	14.486	12.837	1.934	1.936	1.918
8.075	12.803	12.949	11.408	1.719	1.721	1.705
8.125	11.443	11.570	10.131	1.527	1.529	1.515
8.175	10.224	10.335	8.992	1.355	1.356	1.344
8.225	9.148	9.244	7.986	1.203	1.204	1.194
8.275	8.222	8.305	7.111	1.072	1.073	1.064
8.325	7.394	7.466	6.335	0.955	0.956	0.948
8.375	6.728	6.790	5.685	0.859	0.860	0.853
8.425	6.101	6.154	5.093	0.770	0.771	0.765
8.475	5.485	5.531	4.541	0.685	0.686	0.680
8.525	4.984	5.023	4.078	0.615	0.616	0.611
8.575	4.513	4.547	3.658	0.550	0.550	0.546
8.625	4.199	4.227	3.342	0.504	0.505	0.501
8.675	3.848	3.872	3.026	0.456	0.456	0.453
8.725	3.536	3.556	2.749	0.413	0.413	0.410
8.775	3.272	3.289	2.512	0.377	0.377	0.374
8.825	3.035	3.049	2.302	0.344	0.344	0.342
8.875	2.862	2.874	2.137	0.319	0.319	0.318
8.925	2.649	2.659	1.961	0.291	0.291	0.289
8.975	2.513	2.522	1.833	0.272	0.272	0.270
9.025	2.332	2.339	1.689	0.248	0.248	0.247
9.075	2.220	2.225	1.587	0.232	0.232	0.231
9.125	2.153	2.157	1.514	0.222	0.222	0.221
9.175	2.038	2.041	1.421	0.207	0.207	0.206
9.225	1.911	1.913	1.325	0.191	0.191	0.190
9.275	1.879	1.880	1.282	0.185	0.185	0.185
9.325	1.809	1.810	1.223	0.176	0.176	0.175
9.375	1.719	1.719	1.156	0.165	0.165	0.164
9.425	1.661	1.661	1.108	0.157	0.157	0.156
9.475	1.593	1.592	1.056	0.148	0.148	0.148
9.525	1.551	1.550	1.020	0.143	0.142	0.142
9.575	1.489	1.487	0.975	0.135	0.135	0.134
9.625	1.432	1.430	0.935	0.128	0.128	0.127
9.675	1.365	1.362	0.890	0.119	0.119	0.119
9.725	1.314	1.311	0.854	0.113	0.113	0.113
9.775	1.300	1.297	0.839	0.111	0.111	0.111
9.825	1.221	1.219	0.792	0.102	0.102	0.102
9.875	1.217	1.214	0.783	0.101	0.101	0.101
9.925	1.206	1.202	0.772	0.099	0.099	0.099
9.975	1.145	1.142	0.735	0.092	0.092	0.092
10.025	1.130	1.127	0.724	0.090	0.090	0.090
10.075	1.101	1.098	0.705	0.087	0.087	0.087
10.125	1.067	1.064	0.684	0.083	0.083	0.083
10.175	1.043	1.040	0.669	0.080	0.080	0.080
10.225	0.996	0.993	0.642	0.075	0.075	0.075
10.275	0.975	0.971	0.628	0.072	0.072	0.072
10.325	0.951	0.948	0.615	0.069	0.069	0.069
10.375	0.932	0.929	0.603	0.067	0.067	0.067
10.425	0.918	0.915	0.594	0.066	0.066	0.065
10.475	0.895	0.892	0.581	0.063	0.063	0.063
10.525	0.877	0.874	0.570	0.061	0.061	0.061
10.575	0.853	0.850	0.557	0.058	0.058	0.058
10.625	0.830	0.827	0.545	0.056	0.056	0.056
10.675	0.825	0.822	0.541	0.055	0.055	0.055
10.725	0.808	0.805	0.532	0.053	0.053	0.053
10.775	0.791	0.788	0.523	0.051	0.051	0.051
10.825	0.772	0.769	0.513	0.049	0.049	0.049
10.875	0.749	0.746	0.500	0.046	0.046	0.046
10.925	0.758	0.755	0.504	0.047	0.047	0.047
10.975	0.740	0.738	0.495	0.046	0.045	0.045
11.025	0.729	0.727	0.489	0.044	0.044	0.044
11.075	0.704	0.701	0.476	0.041	0.041	0.041
11.125	0.703	0.700	0.475	0.041	0.041	0.041
11.175	0.698	0.695	0.472	0.041	0.041	0.041
11.225	0.681	0.678	0.464	0.039	0.039	0.039
11.275	0.674	0.672	0.460	0.038	0.038	0.038
11.325	0.671	0.668	0.458	0.038	0.038	0.038
11.375	0.665	0.663	0.455	0.037	0.037	0.037
11.425	0.653	0.651	0.449	0.036	0.036	0.036
11.475	0.645	0.642	0.444	0.035	0.035	0.035
11.525	0.649	0.646	0.446	0.035	0.035	0.035
11.575	0.650	0.647	0.447	0.035	0.035	0.035
11.625	0.637	0.634	0.440	0.034	0.034	0.034
11.675	0.633	0.630	0.438	0.034	0.034	0.034
11.725	0.634	0.632	0.439	0.034	0.034	0.034
11.775	0.627	0.624	0.435	0.033	0.033	0.033
11.825	0.628	0.626	0.436	0.033	0.033	0.033
11.875	0.623	0.621	0.433	0.033	0.033	0.033
11.925	0.625	0.623	0.434	0.033	0.033	0.033
11.975	0.626	0.623	0.435	0.033	0.033	0.033
