#Bin center (MeV)	AD1	AD2	AD3	AD4	AD5	AD6
0.025	0	0	0	0	0	0
0.075	0	0	0	0	0	0
0.125	0	0	0	0	0	0
0.175	0	0	0	0	0	0
0.225	0	0	0	0	0	0
0.275	0	0	0	0	0	0
0.325	0	0	0	0	0	0
0.375	0	0	0	0	0	0
0.425	0	0	0	0	0	0
0.475	0	0	0	0	0	0
0.525	0	0	0	0	0	0
0.575	0	0	0	0	0	0
0.625	0	0	0	0	0	0
0.675	0	0	0	0	0	0
0.725	172.532	169.041	139.926	47.054	45.622	45.179
0.775	184.131	181.737	155.455	47.220	46.063	45.631
0.825	212.555	211.256	185.043	49.843	48.888	48.427
0.875	253.381	253.271	225.735	54.205	53.422	52.934
0.925	299.550	300.769	271.187	59.232	58.659	58.129
0.975	345.578	348.104	316.238	64.002	63.627	63.050
1.025	391.781	395.510	361.325	68.651	68.424	67.761
1.075	441.124	445.890	409.174	73.889	73.714	72.964
1.125	493.952	499.676	460.015	79.909	79.761	78.914
1.175	547.789	554.436	511.556	86.247	86.137	85.199
1.225	600.494	608.020	561.819	92.489	92.424	91.383
1.275	651.810	660.072	610.550	98.686	98.609	97.490
1.325	702.325	711.178	658.313	105.111	104.953	103.761
1.375	752.219	761.604	705.378	111.840	111.577	110.298
1.425	800.619	810.572	751.020	118.536	118.194	116.826
1.475	845.924	856.583	793.899	124.499	124.161	122.739
1.525	887.121	898.710	833.177	129.169	128.976	127.504
1.575	925.112	937.666	869.637	132.676	132.679	131.196
1.625	961.895	975.350	905.150	135.724	135.884	134.376
1.675	999.561	1013.703	941.479	139.092	139.296	137.776
1.725	1038.914	1053.650	979.326	143.144	143.312	141.778
1.775	1079.362	1094.667	1018.047	147.710	147.828	146.278
1.825	1119.541	1135.505	1056.534	152.352	152.483	150.906
1.875	1158.613	1175.276	1093.959	156.752	156.943	155.329
1.925	1196.138	1213.525	1129.976	160.801	161.079	159.425
1.975	1232.307	1250.335	1164.770	164.644	164.971	163.276
2.025	1267.626	1286.208	1198.746	168.492	168.811	167.075
2.075	1302.243	1321.316	1232.044	172.487	172.768	170.988
2.125	1336.315	1355.811	1264.685	176.663	176.877	175.060
2.175	1369.432	1389.342	1296.359	180.921	181.078	179.221
2.225	1401.374	1421.706	1326.806	185.137	185.263	183.363
2.275	1431.627	1452.371	1355.639	189.166	189.289	187.348
2.325	1460.010	1481.180	1382.689	192.935	193.077	191.094
2.375	1486.358	1507.901	1407.814	196.423	196.587	194.565
2.425	1510.749	1532.642	1431.070	199.672	199.857	197.793
2.475	1533.305	1555.456	1452.568	202.763	202.940	200.833
2.525	1553.943	1576.298	1472.261	205.739	205.886	203.741
2.575	1572.771	1595.258	1490.168	208.624	208.730	206.544
2.625	1589.337	1611.956	1505.928	211.329	211.384	209.171
2.675	1603.176	1625.932	1519.053	213.688	213.714	211.479
2.725	1613.679	1636.621	1529.014	215.497	215.539	213.293
2.775	1620.486	1643.641	1535.495	216.613	216.721	214.473
2.825	1623.553	1646.953	1538.478	216.985	217.188	214.949
2.875	1623.002	1646.607	1538.179	216.664	216.980	214.744
2.925	1619.674	1643.402	1535.277	215.849	216.258	214.020
2.975	1614.147	1637.880	1530.306	214.735	215.183	212.951
3.025	1606.804	1630.445	1523.643	213.465	213.904	211.688
3.075	1598.132	1621.593	1515.640	212.142	212.543	210.339
3.125	1588.127	1611.378	1506.351	210.773	211.118	208.937
3.175	1576.872	1599.896	1495.826	209.337	209.629	207.473
3.225	1564.324	1587.126	1484.021	207.796	208.050	205.916
3.275	1550.312	1572.879	1470.807	206.097	206.326	204.214
3.325	1534.712	1557.034	1456.061	204.206	204.421	202.330
3.375	1517.370	1539.430	1439.649	202.089	202.295	200.227
3.425	1498.097	1519.871	1421.425	199.718	199.919	197.874
3.475	1477.013	1498.474	1401.447	197.102	197.298	195.279
3.525	1454.219	1475.338	1379.800	194.252	194.443	192.453
3.575	1429.751	1450.506	1356.595	191.174	191.361	189.402
3.625	1403.990	1424.361	1332.151	187.920	188.102	186.176
3.675	1377.275	1397.251	1306.796	184.531	184.709	182.818
3.725	1350.017	1369.587	1280.894	181.062	181.235	179.379
3.775	1322.454	1341.618	1254.706	177.542	177.711	175.891
3.825	1294.861	1313.616	1228.499	174.012	174.177	172.393
3.875	1267.547	1285.899	1202.527	170.510	170.671	168.924
3.925	1240.569	1258.522	1176.892	167.045	167.202	165.490
3.975	1214.054	1231.617	1151.702	163.633	163.788	162.111
4.025	1188.142	1205.322	1127.052	160.292	160.444	158.801
4.075	1162.600	1179.404	1102.818	156.997	157.146	155.537
4.125	1137.554	1153.990	1079.033	153.758	153.903	152.328
4.175	1112.835	1128.908	1055.563	150.554	150.698	149.155
4.225	1088.353	1104.067	1032.300	147.374	147.515	146.005
4.275	1063.938	1079.293	1009.089	144.194	144.332	142.855
4.325	1039.390	1054.385	985.764	140.989	141.124	139.681
4.375	1014.512	1029.143	962.174	137.735	137.868	136.457
4.425	989.469	1003.734	938.382	134.447	134.577	133.201
4.475	964.041	977.936	914.273	131.103	131.230	129.888
4.525	938.458	951.978	890.002	127.730	127.854	126.547
4.575	912.801	925.947	865.671	124.341	124.462	123.190
4.625	887.373	900.148	841.514	120.973	121.091	119.854
4.675	862.188	874.595	817.617	117.633	117.749	116.547
4.725	837.424	849.471	794.135	114.346	114.459	113.290
4.775	813.266	824.961	771.203	111.133	111.243	110.108
4.825	789.709	801.060	748.824	107.995	108.102	107.000
4.875	766.531	777.546	726.855	104.905	105.009	103.938
4.925	743.833	754.518	705.300	101.870	101.972	100.933
4.975	721.418	731.775	683.999	98.868	98.968	97.959
5.025	698.970	709.004	662.736	95.859	95.956	94.978
5.075	676.721	686.431	641.595	92.870	92.964	92.017
5.125	654.601	663.988	620.526	89.887	89.979	89.063
5.175	632.356	641.421	599.410	86.886	86.975	86.090
5.225	610.259	619.003	578.422	83.901	83.987	83.133
5.275	588.394	596.821	557.653	80.944	81.027	80.202
5.325	566.960	575.076	537.261	78.039	78.119	77.325
5.375	545.940	553.751	517.291	75.189	75.266	74.501
5.425	525.548	533.062	497.901	72.422	72.496	71.760
5.475	505.723	512.951	479.095	69.732	69.804	69.096
5.525	486.663	493.615	460.995	67.143	67.212	66.530
5.575	468.327	475.014	443.589	64.650	64.717	64.060
5.625	450.752	457.184	426.887	62.257	62.322	61.690
5.675	433.860	440.046	410.833	59.960	60.022	59.414
5.725	417.494	423.444	395.313	57.730	57.790	57.205
5.775	401.722	407.443	380.333	55.582	55.640	55.077
5.825	386.340	391.840	365.750	53.487	53.543	53.001
5.875	371.347	376.630	351.526	51.439	51.492	50.971
5.925	356.621	361.692	337.567	49.427	49.479	48.979
5.975	342.176	347.039	323.853	47.450	47.500	47.020
6.025	327.932	332.588	310.321	45.502	45.550	45.090
6.075	313.766	318.218	296.891	43.560	43.605	43.166
6.125	299.826	304.075	283.633	41.647	41.690	41.270
6.175	285.834	289.884	270.402	39.730	39.771	39.371
6.225	272.171	276.022	257.397	37.847	37.887	37.506
6.275	258.591	262.246	244.504	35.978	36.015	35.653
6.325	245.158	248.620	231.769	34.124	34.160	33.816
6.375	232.027	235.299	219.295	32.314	32.348	32.023
6.425	219.183	222.270	207.091	30.537	30.569	30.262
6.475	206.558	209.465	195.145	28.789	28.819	28.530
6.525	194.442	197.174	183.629	27.111	27.140	26.868
6.575	182.784	185.347	172.533	25.492	25.519	25.264
6.625	171.474	173.876	161.816	23.923	23.948	23.709
6.675	160.645	162.893	151.554	22.414	22.437	22.213
6.725	150.407	152.508	141.814	20.984	21.006	20.797
6.775	140.628	142.588	132.526	19.619	19.639	19.443
6.825	131.307	133.135	123.689	18.316	18.335	18.153
6.875	122.474	124.177	115.312	17.084	17.101	16.931
6.925	114.074	115.657	107.358	15.912	15.928	15.770
6.975	106.127	107.597	99.825	14.802	14.817	14.670
7.025	98.698	100.060	92.737	13.759	13.773	13.637
7.075	91.565	92.825	85.970	12.762	12.776	12.649
7.125	84.761	85.924	79.528	11.811	11.823	11.706
7.175	78.342	79.413	73.435	10.915	10.927	10.819
7.225	72.201	73.186	67.625	10.055	10.065	9.966
7.275	66.476	67.378	62.167	9.252	9.262	9.171
7.325	61.018	61.842	56.978	8.486	8.495	8.412
7.375	55.738	56.489	52.014	7.749	7.757	7.681
7.425	50.881	51.562	47.398	7.067	7.074	7.005
7.475	46.265	46.881	43.036	6.419	6.426	6.363
7.525	41.966	42.521	38.970	5.818	5.823	5.767
7.575	37.990	38.489	35.200	5.257	5.262	5.211
7.625	34.351	34.798	31.734	4.744	4.749	4.703
7.675	30.900	31.298	28.492	4.262	4.266	4.225
7.725	27.723	28.079	25.514	3.815	3.819	3.782
7.775	24.934	25.250	22.854	3.419	3.422	3.390
7.825	22.364	22.643	20.421	3.058	3.060	3.032
7.875	20.010	20.256	18.205	2.728	2.731	2.705
7.925	17.852	18.070	16.190	2.424	2.426	2.404
7.975	16.033	16.223	14.442	2.166	2.168	2.148
8.025	14.312	14.480	12.830	1.925	1.926	1.909
8.075	12.797	12.944	11.402	1.711	1.713	1.697
8.125	11.438	11.566	10.126	1.520	1.522	1.508
8.175	10.219	10.330	8.988	1.349	1.350	1.338
8.225	9.144	9.241	7.983	1.198	1.199	1.188
8.275	8.218	8.302	7.108	1.068	1.069	1.059
8.325	7.391	7.463	6.332	0.951	0.952	0.944
8.375	6.726	6.788	5.683	0.856	0.857	0.850
8.425	6.099	6.152	5.091	0.768	0.768	0.762
8.475	5.484	5.529	4.539	0.683	0.683	0.678
8.525	4.982	5.021	4.077	0.613	0.613	0.609
8.575	4.512	4.545	3.656	0.548	0.549	0.544
8.625	4.198	4.226	3.340	0.503	0.503	0.499
8.675	3.847	3.871	3.025	0.454	0.454	0.451
8.725	3.535	3.556	2.748	0.412	0.412	0.409
8.775	3.271	3.288	2.511	0.376	0.376	0.373
8.825	3.034	3.048	2.301	0.343	0.343	0.341
8.875	2.861	2.873	2.136	0.319	0.319	0.317
8.925	2.649	2.659	1.960	0.290	0.290	0.289
8.975	2.513	2.521	1.833	0.271	0.271	0.270
9.025	2.332	2.339	1.689	0.248	0.248	0.246
9.075	2.219	2.225	1.587	0.232	0.232	0.231
9.125	2.153	2.157	1.514	0.222	0.222	0.221
9.175	2.038	2.041	1.421	0.207	0.207	0.206
9.225	1.911	1.913	1.325	0.191	0.191	0.190
9.275	1.879	1.880	1.282	0.185	0.185	0.184
9.325	1.809	1.809	1.223	0.176	0.176	0.175
9.375	1.719	1.719	1.156	0.164	0.164	0.164
9.425	1.661	1.661	1.108	0.157	0.157	0.156
9.475	1.593	1.592	1.056	0.148	0.148	0.148
9.525	1.551	1.549	1.020	0.142	0.142	0.142
9.575	1.488	1.487	0.975	0.135	0.134	0.134
9.625	1.431	1.430	0.934	0.128	0.127	0.127
9.675	1.365	1.362	0.890	0.119	0.119	0.119
9.725	1.314	1.311	0.854	0.113	0.113	0.113
9.775	1.300	1.297	0.839	0.111	0.111	0.111
9.825	1.221	1.219	0.792	0.102	0.102	0.102
9.875	1.217	1.214	0.783	0.101	0.101	0.101
9.925	1.205	1.202	0.772	0.099	0.099	0.099
9.975	1.145	1.141	0.735	0.092	0.092	0.092
10.025	1.130	1.127	0.724	0.090	0.090	0.090
10.075	1.101	1.098	0.705	0.087	0.087	0.087
10.125	1.067	1.064	0.684	0.083	0.083	0.083
10.175	1.043	1.040	0.669	0.080	0.080	0.080
10.225	0.996	0.993	0.642	0.075	0.075	0.075
10.275	0.975	0.971	0.628	0.072	0.072	0.072
10.325	0.951	0.948	0.615	0.069	0.069	0.069
10.375	0.932	0.929	0.603	0.067	0.067	0.067
10.425	0.918	0.915	0.594	0.066	0.066	0.065
10.475	0.895	0.892	0.581	0.063	0.063	0.063
10.525	0.877	0.874	0.570	0.061	0.061	0.061
10.575	0.853	0.850	0.557	0.058	0.058	0.058
10.625	0.830	0.827	0.545	0.056	0.056	0.056
10.675	0.825	0.822	0.541	0.055	0.055	0.055
10.725	0.807	0.805	0.532	0.053	0.053	0.053
10.775	0.791	0.788	0.523	0.051	0.051	0.051
10.825	0.772	0.769	0.513	0.049	0.049	0.049
10.875	0.749	0.746	0.500	0.046	0.046	0.046
10.925	0.758	0.755	0.504	0.047	0.047	0.047
10.975	0.740	0.738	0.495	0.046	0.045	0.045
11.025	0.729	0.727	0.489	0.044	0.044	0.044
11.075	0.704	0.701	0.476	0.041	0.041	0.041
11.125	0.703	0.700	0.475	0.041	0.041	0.041
11.175	0.698	0.695	0.472	0.041	0.041	0.041
11.225	0.681	0.678	0.464	0.039	0.039	0.039
11.275	0.674	0.672	0.460	0.038	0.038	0.038
11.325	0.671	0.668	0.458	0.038	0.038	0.038
11.375	0.665	0.663	0.455	0.037	0.037	0.037
11.425	0.653	0.651	0.449	0.036	0.036	0.036
11.475	0.645	0.642	0.444	0.035	0.035	0.035
11.525	0.649	0.646	0.446	0.035	0.035	0.035
11.575	0.650	0.647	0.447	0.035	0.035	0.035
11.625	0.637	0.634	0.440	0.034	0.034	0.034
11.675	0.633	0.630	0.438	0.034	0.034	0.034
11.725	0.634	0.632	0.439	0.034	0.034	0.034
11.775	0.627	0.624	0.435	0.033	0.033	0.033
11.825	0.628	0.626	0.436	0.033	0.033	0.033
11.875	0.623	0.621	0.433	0.033	0.033	0.033
11.925	0.625	0.623	0.434	0.033	0.033	0.033
11.975	0.626	0.623	0.435	0.033	0.033	0.033
