#Bin center (MeV)	AD1	AD2	AD3	AD4	AD5	AD6
0.025	0	0	0	0	0	0
0.075	0	0	0	0	0	0
0.125	0	0	0	0	0	0
0.175	0	0	0	0	0	0
0.225	0	0	0	0	0	0
0.275	0	0	0	0	0	0
0.325	0	0	0	0	0	0
0.375	0	0	0	0	0	0
0.425	0	0	0	0	0	0
0.475	0	0	0	0	0	0
0.525	0	0	0	0	0	0
0.575	0	0	0	0	0	0
0.625	0	0	0	0	0	0
0.675	0	0	0	0	0	0
0.725	173.329	169.837	140.796	47.464	46.033	45.586
0.775	185.321	182.924	156.761	47.774	46.618	46.179
0.825	214.425	213.123	187.109	50.619	49.664	49.194
0.875	256.259	256.143	228.932	55.266	54.482	53.981
0.925	303.685	304.896	275.797	60.607	60.034	59.484
0.975	351.070	353.586	322.371	65.712	65.336	64.734
1.025	398.601	402.317	368.937	70.735	70.506	69.812
1.075	449.172	453.922	418.139	76.407	76.230	75.442
1.125	503.103	508.809	470.181	82.913	82.763	81.871
1.175	557.915	564.543	522.769	89.767	89.655	88.666
1.225	611.475	618.979	573.940	96.534	96.468	95.369
1.275	663.538	671.777	623.456	103.252	103.175	101.992
1.325	714.704	723.532	671.897	110.188	110.031	108.770
1.375	765.165	774.524	719.545	117.414	117.153	115.802
1.425	814.058	823.983	765.689	124.591	124.254	122.808
1.475	859.794	870.423	809.002	131.021	130.688	129.185
1.525	901.374	912.933	848.661	136.144	135.958	134.401
1.575	939.712	952.234	885.465	140.093	140.104	138.533
1.625	976.816	990.238	921.292	143.574	143.743	142.144
1.675	1014.779	1028.888	957.913	147.366	147.581	145.966
1.725	1054.408	1069.109	996.027	151.830	152.011	150.380
1.775	1095.108	1110.377	1034.992	156.797	156.929	155.280
1.825	1135.511	1151.439	1073.694	161.823	161.969	160.291
1.875	1174.779	1191.405	1111.302	166.588	166.796	165.079
1.925	1212.467	1229.817	1147.470	170.981	171.276	169.517
1.975	1248.767	1266.757	1182.382	175.144	175.490	173.688
2.025	1284.187	1302.731	1216.443	179.290	179.628	177.784
2.075	1318.875	1337.909	1249.795	183.556	183.859	181.970
2.125	1352.988	1372.444	1282.459	187.980	188.216	186.289
2.175	1386.117	1405.988	1314.127	192.460	192.640	190.674
2.225	1418.044	1438.337	1344.540	196.873	197.023	195.013
2.275	1448.257	1468.961	1373.312	201.074	201.221	199.170
2.325	1476.573	1497.704	1400.275	204.989	205.156	203.062
2.375	1502.829	1524.334	1425.286	208.596	208.786	206.654
2.425	1527.104	1548.957	1448.402	211.937	212.149	209.976
2.475	1549.518	1571.630	1469.735	215.094	215.299	213.084
2.525	1569.991	1592.307	1489.239	218.110	218.285	216.033
2.575	1588.630	1611.079	1506.934	221.008	221.142	218.850
2.625	1604.984	1627.566	1522.458	223.700	223.783	221.465
2.675	1618.590	1641.309	1535.326	226.019	226.074	223.736
2.725	1628.839	1651.745	1545.007	227.764	227.834	225.487
2.775	1635.372	1658.492	1551.189	228.789	228.926	226.578
2.825	1638.149	1661.513	1553.856	229.048	229.280	226.943
2.875	1637.292	1660.863	1553.226	228.594	228.938	226.606
2.925	1633.646	1657.340	1549.981	227.626	228.063	225.731
2.975	1627.791	1651.490	1544.656	226.342	226.818	224.495
3.025	1620.112	1643.720	1537.632	224.887	225.354	223.048
3.075	1611.098	1634.528	1529.264	223.366	223.795	221.504
3.125	1600.748	1623.968	1519.605	221.788	222.161	219.895
3.175	1589.145	1612.140	1508.708	220.134	220.453	218.215
3.225	1576.249	1599.022	1496.531	218.366	218.647	216.433
3.275	1561.887	1584.426	1482.945	216.433	216.688	214.498
3.325	1545.936	1568.231	1467.827	214.301	214.541	212.375
3.375	1528.242	1550.276	1451.041	211.934	212.165	210.023
3.425	1508.616	1530.365	1432.442	209.305	209.531	207.415
3.475	1487.177	1508.613	1412.088	206.424	206.644	204.558
3.525	1464.028	1485.123	1390.066	203.303	203.518	201.462
3.575	1439.205	1459.937	1366.486	199.950	200.160	198.137
3.625	1413.092	1433.441	1341.670	196.417	196.621	194.635
3.675	1386.030	1405.985	1315.949	192.750	192.950	190.999
3.725	1358.433	1377.982	1289.689	189.004	189.198	187.286
3.775	1330.539	1349.683	1263.154	185.212	185.401	183.527
3.825	1302.626	1321.362	1236.609	181.415	181.600	179.765
3.875	1275.004	1293.337	1210.313	177.654	177.834	176.037
3.925	1247.729	1265.664	1184.366	173.937	174.113	172.353
3.975	1220.930	1238.476	1158.878	170.282	170.455	168.732
4.025	1194.746	1211.909	1133.942	166.706	166.875	165.189
4.075	1168.943	1185.732	1109.434	163.185	163.350	161.699
4.125	1143.648	1160.069	1085.387	159.726	159.888	158.272
4.175	1118.689	1134.748	1061.666	156.311	156.470	154.889
4.225	1093.976	1109.676	1038.161	152.925	153.081	151.534
4.275	1069.338	1084.679	1014.716	149.545	149.697	148.185
4.325	1044.573	1059.555	991.164	146.144	146.293	144.815
4.375	1019.484	1034.103	967.353	142.697	142.843	141.400
4.425	994.236	1008.489	943.346	139.220	139.363	137.955
4.475	968.607	982.490	919.026	135.689	135.829	134.457
4.525	942.828	956.337	894.550	132.134	132.270	130.935
4.575	916.980	930.116	870.021	128.566	128.699	127.400
4.625	891.368	904.133	845.671	125.024	125.153	123.890
4.675	866.005	878.403	821.589	121.516	121.643	120.415
4.725	841.071	853.109	797.929	118.066	118.189	116.997
4.775	816.750	828.437	774.827	114.697	114.817	113.659
4.825	793.038	804.380	752.285	111.409	111.526	110.401
4.875	769.711	780.717	730.160	108.174	108.288	107.196
4.925	746.870	757.546	708.456	105.000	105.111	104.052
4.975	724.316	734.667	687.011	101.864	101.972	100.945
5.025	701.735	711.762	665.610	98.724	98.829	97.833
5.075	679.358	689.061	644.334	95.607	95.709	94.745
5.125	657.112	666.492	623.135	92.501	92.600	91.667
5.175	634.745	643.804	601.892	89.379	89.474	88.574
5.225	612.530	621.269	580.781	86.276	86.368	85.499
5.275	590.551	598.973	559.893	83.204	83.293	82.455
5.325	569.008	577.118	539.388	80.189	80.275	79.468
5.375	547.883	555.689	519.308	77.232	77.315	76.538
5.425	527.390	534.900	499.814	74.363	74.444	73.695
5.475	507.470	514.693	480.908	71.577	71.654	70.934
5.525	488.319	495.267	462.714	68.895	68.970	68.277
5.575	469.898	476.581	445.219	66.315	66.386	65.720
5.625	452.242	458.670	428.433	63.839	63.908	63.267
5.675	435.273	441.456	412.299	61.463	61.530	60.912
5.725	418.835	424.782	396.704	59.159	59.223	58.629
5.775	402.994	408.712	381.653	56.940	57.002	56.430
5.825	387.547	393.043	367.002	54.777	54.837	54.287
5.875	372.490	377.771	352.712	52.664	52.721	52.192
5.925	357.704	362.773	338.691	50.590	50.644	50.137
5.975	343.202	348.062	324.917	48.552	48.605	48.118
6.025	328.902	333.555	311.327	46.546	46.596	46.130
6.075	314.682	319.131	297.840	44.547	44.595	44.149
6.125	300.689	304.937	284.528	42.579	42.625	42.199
6.175	286.647	290.695	271.245	40.608	40.652	40.246
6.225	272.935	276.784	258.189	38.674	38.716	38.330
6.275	259.307	262.960	245.246	36.754	36.793	36.427
6.325	245.829	249.289	232.465	34.851	34.889	34.542
6.375	232.654	235.924	219.945	32.995	33.030	32.702
6.425	219.768	222.853	207.697	31.172	31.206	30.896
6.475	207.102	210.007	195.709	29.381	29.413	29.120
6.525	194.947	197.678	184.153	27.662	27.692	27.417
6.575	183.253	185.815	173.019	26.004	26.032	25.774
6.625	171.908	174.309	162.266	24.398	24.424	24.182
6.675	161.047	163.294	151.971	22.853	22.878	22.651
6.725	150.779	152.879	142.199	21.391	21.414	21.202
6.775	140.971	142.930	132.881	19.994	20.016	19.818
6.825	131.624	133.451	124.017	18.663	18.683	18.499
6.875	122.765	124.467	115.614	17.403	17.422	17.250
6.925	114.342	115.924	107.635	16.206	16.224	16.063
6.975	106.373	107.843	100.080	15.072	15.088	14.940
7.025	98.924	100.285	92.971	14.008	14.023	13.885
7.075	91.772	93.032	86.184	12.990	13.004	12.876
7.125	84.950	86.113	79.724	12.020	12.032	11.914
7.175	78.514	79.585	73.613	11.106	11.117	11.008
7.225	72.358	73.342	67.787	10.228	10.239	10.139
7.275	66.619	67.520	62.314	9.410	9.420	9.328
7.325	61.147	61.970	57.112	8.629	8.638	8.554
7.375	55.855	56.605	52.134	7.878	7.886	7.810
7.425	50.986	51.667	47.506	7.183	7.190	7.120
7.475	46.358	46.974	43.133	6.523	6.530	6.467
7.525	42.050	42.605	39.057	5.911	5.917	5.860
7.575	38.065	38.564	35.278	5.340	5.345	5.294
7.625	34.418	34.864	31.803	4.818	4.823	4.777
7.675	30.958	31.357	28.553	4.327	4.331	4.290
7.725	27.775	28.131	25.568	3.873	3.877	3.840
7.775	24.980	25.296	22.901	3.470	3.473	3.440
7.825	22.404	22.683	20.462	3.102	3.105	3.076
7.875	20.045	20.292	18.242	2.768	2.770	2.745
7.925	17.883	18.101	16.222	2.459	2.461	2.438
7.975	16.060	16.250	14.470	2.196	2.198	2.178
8.025	14.336	14.503	12.854	1.951	1.953	1.935
8.075	12.818	12.964	11.424	1.734	1.736	1.720
8.125	11.455	11.583	10.145	1.540	1.542	1.528
8.175	10.235	10.346	9.004	1.366	1.367	1.355
8.225	9.157	9.254	7.997	1.213	1.214	1.203
8.275	8.230	8.313	7.120	1.081	1.082	1.072
8.325	7.401	7.473	6.342	0.963	0.963	0.955
8.375	6.735	6.797	5.692	0.866	0.866	0.859
8.425	6.106	6.159	5.099	0.776	0.777	0.770
8.475	5.490	5.536	4.546	0.690	0.691	0.685
8.525	4.988	5.027	4.082	0.619	0.620	0.615
8.575	4.516	4.550	3.661	0.554	0.554	0.550
8.625	4.202	4.230	3.345	0.507	0.508	0.504
8.675	3.851	3.875	3.029	0.458	0.459	0.455
8.725	3.538	3.559	2.752	0.415	0.415	0.413
8.775	3.274	3.291	2.514	0.379	0.379	0.376
8.825	3.036	3.051	2.304	0.346	0.346	0.344
8.875	2.863	2.875	2.138	0.321	0.321	0.319
8.925	2.651	2.661	1.962	0.292	0.292	0.291
8.975	2.515	2.523	1.834	0.273	0.273	0.272
9.025	2.333	2.340	1.690	0.249	0.249	0.248
9.075	2.221	2.226	1.588	0.233	0.233	0.232
9.125	2.154	2.158	1.515	0.223	0.223	0.222
9.175	2.039	2.042	1.421	0.208	0.208	0.207
9.225	1.912	1.914	1.326	0.192	0.191	0.191
9.275	1.879	1.881	1.283	0.186	0.186	0.185
9.325	1.810	1.810	1.224	0.176	0.176	0.176
9.375	1.720	1.720	1.157	0.165	0.165	0.164
9.425	1.662	1.661	1.108	0.157	0.157	0.157
9.475	1.593	1.592	1.057	0.148	0.148	0.148
9.525	1.551	1.550	1.021	0.143	0.143	0.142
9.575	1.489	1.487	0.975	0.135	0.135	0.135
9.625	1.432	1.430	0.935	0.128	0.128	0.127
9.675	1.365	1.362	0.890	0.120	0.120	0.119
9.725	1.314	1.311	0.855	0.113	0.113	0.113
9.775	1.300	1.297	0.839	0.111	0.111	0.111
9.825	1.221	1.219	0.792	0.102	0.102	0.102
9.875	1.217	1.214	0.783	0.101	0.101	0.101
9.925	1.206	1.203	0.772	0.099	0.099	0.099
9.975	1.145	1.142	0.735	0.092	0.092	0.092
10.025	1.130	1.127	0.724	0.090	0.090	0.090
10.075	1.101	1.098	0.705	0.087	0.087	0.087
10.125	1.067	1.064	0.684	0.083	0.083	0.083
10.175	1.043	1.040	0.669	0.080	0.080	0.080
10.225	0.996	0.993	0.642	0.075	0.075	0.075
10.275	0.975	0.972	0.628	0.072	0.072	0.072
10.325	0.951	0.948	0.615	0.069	0.069	0.069
10.375	0.932	0.929	0.603	0.067	0.067	0.067
10.425	0.918	0.915	0.594	0.066	0.066	0.066
10.475	0.895	0.892	0.581	0.063	0.063	0.063
10.525	0.877	0.874	0.570	0.061	0.061	0.061
10.575	0.853	0.850	0.557	0.058	0.058	0.058
10.625	0.830	0.827	0.545	0.056	0.056	0.056
10.675	0.825	0.822	0.541	0.055	0.055	0.055
10.725	0.808	0.805	0.532	0.053	0.053	0.053
10.775	0.791	0.788	0.523	0.051	0.051	0.051
10.825	0.772	0.770	0.513	0.049	0.049	0.049
10.875	0.749	0.746	0.500	0.046	0.046	0.046
10.925	0.758	0.755	0.504	0.047	0.047	0.047
10.975	0.740	0.738	0.495	0.046	0.045	0.045
11.025	0.729	0.727	0.489	0.044	0.044	0.044
11.075	0.704	0.701	0.476	0.041	0.041	0.041
11.125	0.703	0.700	0.475	0.041	0.041	0.041
11.175	0.698	0.695	0.472	0.041	0.041	0.041
11.225	0.681	0.678	0.464	0.039	0.039	0.039
11.275	0.674	0.672	0.460	0.038	0.038	0.038
11.325	0.671	0.668	0.458	0.038	0.038	0.038
11.375	0.665	0.663	0.455	0.037	0.037	0.037
11.425	0.653	0.651	0.449	0.036	0.036	0.036
11.475	0.645	0.642	0.444	0.035	0.035	0.035
11.525	0.649	0.646	0.446	0.035	0.035	0.035
11.575	0.650	0.647	0.447	0.035	0.035	0.035
11.625	0.637	0.634	0.440	0.034	0.034	0.034
11.675	0.633	0.630	0.438	0.034	0.034	0.034
11.725	0.634	0.632	0.439	0.034	0.034	0.034
11.775	0.627	0.624	0.435	0.033	0.033	0.033
11.825	0.628	0.626	0.436	0.033	0.033	0.033
11.875	0.623	0.621	0.433	0.033	0.033	0.033
11.925	0.625	0.623	0.434	0.033	0.033	0.033
11.975	0.626	0.623	0.435	0.033	0.033	0.033
