#Bin center (MeV)	AD1	AD2	AD3	AD4	AD5	AD6
0.025	0	0	0	0	0	0
0.075	0	0	0	0	0	0
0.125	0	0	0	0	0	0
0.175	0	0	0	0	0	0
0.225	0	0	0	0	0	0
0.275	0	0	0	0	0	0
0.325	0	0	0	0	0	0
0.375	0	0	0	0	0	0
0.425	0	0	0	0	0	0
0.475	0	0	0	0	0	0
0.525	0	0	0	0	0	0
0.575	0	0	0	0	0	0
0.625	0	0	0	0	0	0
0.675	0	0	0	0	0	0
0.725	172.674	169.183	140.049	47.290	45.859	45.415
0.775	184.361	181.966	155.654	47.572	46.416	45.981
0.825	212.945	211.644	185.381	50.396	49.441	48.974
0.875	254.021	253.908	226.289	55.058	54.277	53.779
0.925	300.512	301.727	272.021	60.472	59.902	59.356
0.975	346.889	349.409	317.373	65.684	65.313	64.716
1.025	393.419	397.141	362.742	70.799	70.577	69.887
1.075	443.037	447.794	410.829	76.501	76.333	75.551
1.125	496.082	501.796	461.858	82.965	82.824	81.943
1.175	550.085	556.722	513.543	89.714	89.613	88.638
1.225	602.914	610.429	563.913	96.328	96.274	95.193
1.275	654.320	662.571	612.721	102.855	102.790	101.631
1.325	704.895	713.737	660.538	109.569	109.425	108.191
1.375	754.827	764.202	707.637	116.547	116.299	114.979
1.425	803.246	813.188	753.295	123.454	123.128	121.719
1.475	848.554	859.202	796.177	129.595	129.274	127.812
1.525	889.742	901.321	835.449	134.414	134.239	132.728
1.575	927.717	940.260	871.896	138.047	138.068	136.547
1.625	964.478	977.923	907.389	141.200	141.379	139.834
1.675	1002.117	1016.249	943.697	144.657	144.881	143.323
1.725	1041.440	1056.165	981.517	148.779	148.968	147.399
1.775	1081.853	1097.149	1020.210	153.401	153.540	151.956
1.825	1121.995	1137.949	1058.664	158.080	158.233	156.623
1.875	1161.025	1177.679	1096.053	162.501	162.714	161.068
1.925	1198.505	1215.882	1132.031	166.553	166.852	165.168
1.975	1234.625	1252.643	1166.783	170.383	170.731	169.007
2.025	1269.891	1288.465	1200.714	174.203	174.543	172.779
2.075	1304.454	1323.518	1233.965	178.154	178.457	176.650
2.125	1338.469	1357.957	1266.556	182.275	182.510	180.667
2.175	1371.527	1391.430	1298.180	186.464	186.643	184.762
2.225	1403.409	1423.734	1328.574	190.601	190.749	188.826
2.275	1433.602	1454.338	1357.355	194.542	194.686	192.723
2.325	1461.922	1483.085	1384.351	198.214	198.375	196.372
2.375	1488.207	1509.744	1409.421	201.595	201.780	199.738
2.425	1512.535	1534.421	1432.622	204.731	204.935	202.853
2.475	1535.027	1557.172	1454.064	207.701	207.898	205.774
2.525	1555.602	1577.951	1473.702	210.551	210.717	208.556
2.575	1574.366	1596.848	1491.554	213.304	213.429	211.228
2.625	1590.869	1613.482	1507.259	215.873	215.946	213.719
2.675	1604.645	1627.395	1520.329	218.092	218.136	215.888
2.725	1615.085	1638.023	1530.236	219.758	219.816	217.558
2.775	1621.831	1644.981	1536.663	220.728	220.851	218.592
2.825	1624.837	1648.233	1539.593	220.952	221.170	218.920
2.875	1624.227	1647.827	1539.242	220.483	220.813	218.567
2.925	1620.841	1644.564	1536.290	219.520	219.942	217.696
2.975	1615.257	1638.985	1531.269	218.259	218.720	216.480
3.025	1607.859	1631.496	1524.558	216.843	217.295	215.071
3.075	1599.133	1622.591	1516.510	215.377	215.790	213.579
3.125	1589.078	1612.325	1507.176	213.867	214.224	212.037
3.175	1577.773	1600.794	1496.607	212.294	212.598	210.435
3.225	1565.177	1587.977	1484.761	210.619	210.884	208.745
3.275	1551.120	1573.684	1471.507	208.790	209.029	206.912
3.325	1535.475	1557.795	1456.723	206.773	206.997	204.902
3.375	1518.091	1540.149	1440.275	204.532	204.747	202.674
3.425	1498.778	1520.550	1422.015	202.040	202.251	200.201
3.475	1477.655	1499.114	1402.003	199.307	199.512	197.489
3.525	1454.824	1475.941	1380.324	196.343	196.543	194.549
3.575	1430.320	1451.073	1357.088	193.155	193.350	191.387
3.625	1404.525	1424.894	1332.614	189.794	189.984	188.055
3.675	1377.777	1397.752	1307.230	186.303	186.488	184.594
3.725	1350.488	1370.057	1281.301	182.735	182.915	181.057
3.775	1322.896	1342.058	1255.088	179.122	179.298	177.475
3.825	1295.275	1314.030	1228.857	175.503	175.675	173.889
3.875	1267.936	1286.286	1202.863	171.918	172.085	170.335
3.925	1240.933	1258.885	1177.206	168.373	168.536	166.822
3.975	1214.396	1231.958	1151.997	164.887	165.047	163.368
4.025	1188.463	1205.641	1127.329	161.476	161.632	159.988
4.075	1162.901	1179.704	1103.077	158.115	158.268	156.658
4.125	1137.836	1154.271	1079.276	154.813	154.963	153.386
4.175	1113.100	1129.172	1055.792	151.551	151.699	150.155
4.225	1088.602	1104.315	1032.515	148.315	148.460	146.949
4.275	1064.172	1079.526	1009.291	145.084	145.225	143.748
4.325	1039.609	1054.603	985.953	141.829	141.967	140.523
4.375	1014.718	1029.348	962.351	138.527	138.663	137.252
4.425	989.663	1003.927	938.548	135.194	135.327	133.950
4.475	964.222	978.116	914.428	131.806	131.936	130.594
4.525	938.628	952.147	890.147	128.393	128.519	127.212
4.575	912.959	926.105	865.807	124.965	125.088	123.816
4.625	887.521	900.295	841.641	121.559	121.680	120.443
4.675	862.326	874.733	817.735	118.185	118.303	117.100
4.725	837.553	849.600	794.246	114.865	114.980	113.811
4.775	813.387	825.082	771.307	111.621	111.733	110.598
4.825	789.823	801.173	748.921	108.453	108.563	107.460
4.875	766.637	777.652	726.945	105.336	105.442	104.371
4.925	743.932	754.616	705.384	102.275	102.379	101.340
4.975	721.511	731.868	684.078	99.249	99.350	98.342
5.025	699.056	709.090	662.809	96.217	96.315	95.337
5.075	676.802	686.512	641.664	93.206	93.301	92.354
5.125	654.676	664.063	620.590	90.203	90.295	89.379
5.175	632.426	641.491	599.469	87.182	87.272	86.386
5.225	610.325	619.069	578.477	84.178	84.265	83.411
5.275	588.455	596.882	557.704	81.202	81.286	80.462
5.325	567.017	575.132	537.309	78.281	78.362	77.568
5.375	545.993	553.803	517.336	75.415	75.493	74.728
5.425	525.597	533.111	497.943	72.633	72.709	71.972
5.475	505.768	512.996	479.133	69.930	70.003	69.294
5.525	486.705	493.656	461.031	67.327	67.397	66.715
5.575	468.367	475.053	443.622	64.822	64.890	64.233
5.625	450.788	457.220	426.918	62.418	62.483	61.851
5.675	433.894	440.080	410.861	60.110	60.173	59.565
5.725	417.525	423.475	395.340	57.871	57.931	57.346
5.775	401.751	407.472	380.358	55.714	55.772	55.209
5.825	386.367	391.867	365.773	53.610	53.667	53.125
5.875	371.372	376.655	351.547	51.554	51.608	51.087
5.925	356.644	361.716	337.586	49.535	49.587	49.087
5.975	342.198	347.061	323.871	47.551	47.600	47.121
6.025	327.952	332.608	310.338	45.596	45.644	45.184
6.075	313.784	318.236	296.906	43.647	43.693	43.253
6.125	299.843	304.092	283.647	41.728	41.772	41.352
6.175	285.850	289.900	270.415	39.805	39.847	39.446
6.225	272.185	276.036	257.409	37.917	37.957	37.576
6.275	258.604	262.259	244.515	36.042	36.080	35.718
6.325	245.171	248.633	231.780	34.184	34.220	33.876
6.375	232.038	235.311	219.305	32.369	32.403	32.079
6.425	219.193	222.280	207.100	30.588	30.620	30.313
6.475	206.567	209.474	195.153	28.835	28.865	28.577
6.525	194.450	197.183	183.636	27.154	27.182	26.911
6.575	182.791	185.355	172.539	25.531	25.558	25.303
6.625	171.481	173.883	161.822	23.959	23.984	23.745
6.675	160.652	162.900	151.560	22.447	22.470	22.246
6.725	150.413	152.514	141.819	21.014	21.036	20.827
6.775	140.633	142.594	132.531	19.646	19.666	19.471
6.825	131.312	133.140	123.693	18.341	18.360	18.178
6.875	122.478	124.181	115.316	17.106	17.124	16.954
6.925	114.078	115.661	107.361	15.932	15.949	15.791
6.975	106.131	107.601	99.828	14.820	14.836	14.688
7.025	98.702	100.063	92.740	13.776	13.790	13.654
7.075	91.568	92.828	85.972	12.778	12.791	12.664
7.125	84.763	85.927	79.530	11.825	11.837	11.720
7.175	78.344	79.416	73.437	10.928	10.939	10.831
7.225	72.203	73.188	67.626	10.066	10.076	9.977
7.275	66.478	67.380	62.168	9.262	9.272	9.181
7.325	61.019	61.843	56.980	8.495	8.504	8.421
7.375	55.740	56.490	52.015	7.757	7.765	7.689
7.425	50.883	51.563	47.399	7.074	7.081	7.012
7.475	46.266	46.882	43.037	6.425	6.432	6.369
7.525	41.967	42.522	38.971	5.823	5.829	5.773
7.575	37.991	38.490	35.201	5.262	5.267	5.216
7.625	34.352	34.798	31.735	4.749	4.753	4.708
7.675	30.900	31.299	28.492	4.265	4.269	4.229
7.725	27.724	28.079	25.514	3.818	3.822	3.786
7.775	24.935	25.251	22.854	3.422	3.425	3.392
7.825	22.364	22.644	20.421	3.060	3.063	3.034
7.875	20.010	20.257	18.206	2.730	2.733	2.707
7.925	17.852	18.070	16.190	2.426	2.428	2.406
7.975	16.033	16.224	14.442	2.168	2.170	2.150
8.025	14.313	14.480	12.830	1.926	1.928	1.910
8.075	12.798	12.944	11.403	1.712	1.714	1.698
8.125	11.438	11.566	10.127	1.521	1.523	1.509
8.175	10.219	10.331	8.988	1.349	1.351	1.339
8.225	9.144	9.241	7.983	1.199	1.200	1.189
8.275	8.218	8.302	7.108	1.068	1.069	1.060
8.325	7.391	7.463	6.332	0.952	0.953	0.945
8.375	6.726	6.788	5.683	0.857	0.857	0.850
8.425	6.099	6.152	5.091	0.768	0.769	0.762
8.475	5.484	5.529	4.539	0.683	0.684	0.678
8.525	4.982	5.021	4.077	0.613	0.614	0.609
8.575	4.512	4.545	3.656	0.548	0.549	0.545
8.625	4.198	4.226	3.340	0.503	0.503	0.500
8.675	3.847	3.871	3.025	0.454	0.455	0.452
8.725	3.535	3.556	2.748	0.412	0.412	0.409
8.775	3.271	3.288	2.511	0.376	0.376	0.373
8.825	3.034	3.049	2.301	0.343	0.343	0.341
8.875	2.861	2.873	2.136	0.319	0.319	0.317
8.925	2.649	2.659	1.960	0.290	0.290	0.289
8.975	2.513	2.521	1.833	0.271	0.271	0.270
9.025	2.332	2.339	1.689	0.248	0.248	0.246
9.075	2.219	2.225	1.587	0.232	0.232	0.231
9.125	2.153	2.157	1.514	0.222	0.222	0.221
9.175	2.038	2.041	1.421	0.207	0.207	0.206
9.225	1.911	1.913	1.325	0.191	0.191	0.190
9.275	1.879	1.880	1.282	0.185	0.185	0.184
9.325	1.809	1.809	1.223	0.176	0.176	0.175
9.375	1.719	1.719	1.156	0.165	0.164	0.164
9.425	1.661	1.661	1.108	0.157	0.157	0.156
9.475	1.593	1.592	1.056	0.148	0.148	0.148
9.525	1.551	1.549	1.020	0.142	0.142	0.142
9.575	1.488	1.487	0.975	0.135	0.135	0.134
9.625	1.431	1.430	0.934	0.128	0.127	0.127
9.675	1.365	1.362	0.890	0.119	0.119	0.119
9.725	1.314	1.311	0.854	0.113	0.113	0.113
9.775	1.300	1.297	0.839	0.111	0.111	0.111
9.825	1.221	1.219	0.792	0.102	0.102	0.102
9.875	1.217	1.214	0.783	0.101	0.101	0.101
9.925	1.205	1.202	0.772	0.099	0.099	0.099
9.975	1.145	1.141	0.735	0.092	0.092	0.092
10.025	1.130	1.127	0.724	0.090	0.090	0.090
10.075	1.101	1.098	0.705	0.087	0.087	0.087
10.125	1.067	1.064	0.684	0.083	0.083	0.083
10.175	1.043	1.040	0.669	0.080	0.080	0.080
10.225	0.996	0.993	0.642	0.075	0.075	0.075
10.275	0.975	0.971	0.628	0.072	0.072	0.072
10.325	0.951	0.948	0.615	0.069	0.069	0.069
10.375	0.932	0.929	0.603	0.067	0.067	0.067
10.425	0.918	0.915	0.594	0.066	0.066	0.065
10.475	0.895	0.892	0.581	0.063	0.063	0.063
10.525	0.877	0.874	0.570	0.061	0.061	0.061
10.575	0.853	0.850	0.557	0.058	0.058	0.058
10.625	0.830	0.827	0.545	0.056	0.056	0.056
10.675	0.825	0.822	0.541	0.055	0.055	0.055
10.725	0.807	0.805	0.532	0.053	0.053	0.053
10.775	0.791	0.788	0.523	0.051	0.051	0.051
10.825	0.772	0.769	0.513	0.049	0.049	0.049
10.875	0.749	0.746	0.500	0.046	0.046	0.046
10.925	0.758	0.755	0.504	0.047	0.047	0.047
10.975	0.740	0.738	0.495	0.046	0.045	0.045
11.025	0.729	0.727	0.489	0.044	0.044	0.044
11.075	0.704	0.701	0.476	0.041	0.041	0.041
11.125	0.703	0.700	0.475	0.041	0.041	0.041
11.175	0.698	0.695	0.472	0.041	0.041	0.041
11.225	0.681	0.678	0.464	0.039	0.039	0.039
11.275	0.674	0.672	0.460	0.038	0.038	0.038
11.325	0.671	0.668	0.458	0.038	0.038	0.038
11.375	0.665	0.663	0.455	0.037	0.037	0.037
11.425	0.653	0.651	0.449	0.036	0.036	0.036
11.475	0.645	0.642	0.444	0.035	0.035	0.035
11.525	0.649	0.646	0.446	0.035	0.035	0.035
11.575	0.650	0.647	0.447	0.035	0.035	0.035
11.625	0.637	0.634	0.440	0.034	0.034	0.034
11.675	0.633	0.630	0.438	0.034	0.034	0.034
11.725	0.634	0.632	0.439	0.034	0.034	0.034
11.775	0.627	0.624	0.435	0.033	0.033	0.033
11.825	0.628	0.626	0.436	0.033	0.033	0.033
11.875	0.623	0.621	0.433	0.033	0.033	0.033
11.925	0.625	0.623	0.434	0.033	0.033	0.033
11.975	0.626	0.623	0.435	0.033	0.033	0.033
